CLOSED
Version	2.0
Language	English
Mode	TGA 1000 °C
Run	1
RunSerial	3694
Instrument	TGA Q50 V20.13 Build 39
Module	TGA
InstSerial	0050-0958
Operator	Chimezie
File	\\Chem2503227x015\ta\Data\TGA\Dr Sezer\Gyp_70_BI_T1_Nitrogen.001
FurnaceType	Standard
Sample	Gyp_70_BI_T1_Nitrogen
Size	10.0040	mg
ProcName	Ramp
Method	Ramp
Comment	
Xcomment	Pan: Platinum
Xcomment	Gas1: Nitrogen
Xcomment	Gas2: Air
Xcomment	Balance Gas: Nitrogen 20.0 ml/min
Xcomment	Sample Gas: Nitrogen 20.0 ml/min
Text
Kcell	1.00000
TempCal	2	pts	23.30	23.50,363.56	353.85
InstCalDate	Weight Date 2024-06-24 07:59:50
Controls	Gas 1  Event Off  Sampling 0.5
Nsig	6
Sig1	Time (min)
Sig2	Temperature (°C)
Sig3	Weight (mg)
Sig4	Balance Purge Flow (mL/min)
Sig5	Sample Purge Flow (mL/min)
Sig6	Deriv. Weight (%/°C)
AirCoolTime	0.0 min
AutoAnalysis	Off
MacroFile
Date	2024-10-10
Time	12:41:13
OrgMethod	1: Ramp 70.00 °C/min to 900.00 °C
OrgFile	C:\TA\Data\TGA\Dr Sezer\Gyp_70_BI_T1_Nitrogen.001
StartOfData
.003733334	21.36480	10.00342	19.98314	20.02938	-.01794280
.004166667	21.36843	10.00341	19.99195	19.99841	-.01794092
0.01250000	21.38063	10.00354	20.00414	20.00719	-.01793459
0.02083334	21.40692	10.00382	20.01488	19.98984	-.01792084
0.02916666	21.44196	10.00373	20.01774	19.99718	-.01790229
0.03750000	21.48898	10.00355	19.99554	19.99677	-.01787702
0.04583334	21.55048	10.00388	20.00708	20.03891	-.01784331
0.05416668	21.62445	10.00435	20.00211	19.97038	-.01780180
0.06250000	21.71231	10.00446	19.98185	20.00756	-.01751722
0.07083332	21.80926	10.00484	20.00320	20.00117	-.01749997
0.07916666	21.92172	10.00533	19.98849	19.99155	-.01747954
0.08750000	22.04016	10.00581	20.01471	20.00445	-.01723189
0.09583332	22.17751	10.00606	20.01773	19.99071	-.01720050
0.1041666	22.32232	10.00619	19.99081	19.99122	-.01694400
0.1125000	22.48052	10.00659	20.00003	19.98999	-.01683802
0.1208333	22.64989	10.00702	19.99278	20.00566	-.01639286
0.1291666	22.83028	10.00742	20.00416	20.00143	-.01629654
0.1375000	23.02033	10.00780	19.98004	19.99470	-.01581152
0.1458333	23.22250	10.00828	19.99656	19.99419	-.01569685
0.1541667	23.43460	10.00871	20.00398	19.99951	-.01515944
0.1625000	23.65564	10.00883	20.01456	19.98617	-.01506356
0.1708334	23.88776	10.00861	20.00296	20.00365	-.01451092
0.1791666	24.12664	10.00853	20.00669	19.98599	-.01393408
0.1875000	24.37422	10.00908	19.99048	20.00301	-.01384995
0.1958334	24.63066	10.00955	20.00849	20.01170	-.01331307
0.2041667	24.89660	10.01021	19.98487	19.99628	-.01279140
0.2125000	25.17422	10.01079	19.98509	19.99612	-.01229522
0.2208333	25.45422	10.01127	20.00801	20.02029	-.01224136
0.2291667	25.74638	10.01197	20.01091	19.97959	-.01176524
0.2375000	26.04695	10.01241	20.00786	19.99778	-.01127902
0.2458334	26.35204	10.01259	19.99522	19.99679	-.01086215
0.2541666	26.66455	10.01276	20.00017	19.99802	-9.4971E-3
0.2625000	26.98291	10.01321	20.00001	20.01532	-8.3605E-3
0.2708334	27.31132	10.01360	19.98494	19.99766	-7.5473E-3
0.2791667	27.64274	10.01347	19.99766	19.99774	-6.6228E-3
0.2875000	27.98132	10.01345	20.01092	20.00967	-5.6709E-3
0.2958333	28.32625	10.01334	19.99783	20.00344	-4.7855E-3
0.3041667	28.67830	10.01337	20.01909	20.00074	-4.2982E-3
0.3125000	29.03610	10.01321	20.00154	19.98558	-3.6878E-3
0.3208333	29.40059	10.01328	19.99439	20.00834	-2.5152E-3
0.3291667	29.76814	10.01330	19.98727	20.01439	-1.7219E-3
0.3375000	30.14364	10.01336	19.99898	20.01679	-9.8014E-4
0.3458333	30.52430	10.01355	19.98712	19.99551	-6.3257E-5
0.3541666	30.90628	10.01331	20.00338	19.99894	4.22773E-4
0.3625000	31.29484	10.01348	19.99226	20.00342	6.63041E-4
0.3708334	31.69156	10.01382	20.01985	20.00294	.001127902
0.3791666	32.09035	10.01368	20.01130	19.98438	.001402444
0.3875000	32.49328	10.01355	19.99439	19.98821	.001557223
0.3958334	32.90282	10.01310	20.00989	20.01503	.001751451
0.4041666	33.31362	10.01300	19.98211	19.99325	.001972432
0.4125000	33.72934	10.01299	19.99067	19.99792	.002256746
0.4208333	34.15162	10.01278	19.99847	20.00403	.002361324
0.4291667	34.57652	10.01262	19.99871	19.99668	.002457788
0.4375000	35.00622	10.01242	20.01691	19.97792	.002500134
0.4458333	35.43834	10.01223	20.00869	19.98206	.002605136
0.4541667	35.87663	10.01222	19.99776	19.99411	.002669309
0.4625000	36.31380	10.01222	19.99930	20.02052	.002821402
0.4708334	36.75572	10.01213	20.00375	20.00535	.002910930
0.4791666	37.20586	10.01208	19.97658	19.99640	.002950026
0.4875000	37.65485	10.01175	19.99175	20.02407	.002972482
0.4958334	38.10810	10.01132	20.01104	19.99918	.003087390
0.5041666	38.56258	10.01120	20.01698	20.00752	.003259260
0.5125000	39.02595	10.01138	20.01184	19.99709	.003337576
0.5208332	39.48702	10.01143	19.98561	20.00086	.003356748
0.5291666	39.95508	10.01153	20.00018	20.01260	.003354861
0.5375000	40.42403	10.01133	19.98902	20.01109	.003369700
0.5458334	40.89505	10.01100	20.00059	19.99594	.003456722
0.5541668	41.36898	10.01088	19.99405	20.00804	.003509059
0.5625000	41.85002	10.01031	20.01332	19.98360	.003619054
0.5708332	42.32946	10.01008	19.98692	19.99824	.003618794
0.5791666	42.81022	10.00977	20.00868	19.97041	.003697537
0.5875000	43.29293	10.00944	20.01156	20.00189	.003872972
0.5958334	43.78084	10.00930	20.00035	20.00382	.004085078
0.6041668	44.27299	10.00935	19.98400	20.00702	.004257592
0.6125000	44.76622	10.00935	20.00388	19.99078	.004332528
0.6208334	45.25875	10.00923	19.99476	20.00692	.004254210
0.6291666	45.75828	10.00918	19.99514	19.98924	.004055276
0.6375000	46.25596	10.00894	19.98480	19.99558	.003891446
0.6458332	46.76030	10.00847	20.01804	19.99265	.003631164
0.6541666	47.26346	10.00837	20.01124	20.00542	.003494875
0.6625000	47.76916	10.00798	20.00286	19.99640	.003350258
0.6708334	48.27534	10.00762	19.98314	20.02312	.003226176
0.6791668	48.78226	10.00725	20.00041	20.00481	.003243590
0.6875000	49.29214	10.00722	19.99625	20.01209	.003214838
0.6958332	49.80574	10.00711	20.00521	19.99188	.003102278
0.7041666	50.32022	10.00709	19.99576	20.00760	.002999000
0.7125000	50.83308	10.00717	20.00802	19.98641	.002897311
0.7208334	51.35176	10.00701	20.01626	20.00146	.002788314
0.7291668	51.87161	10.00694	20.00647	19.99031	.002786221
0.7375000	52.39321	10.00676	19.98262	20.01445	.002839520
0.7458334	52.91418	10.00674	19.99412	20.00642	.002832360
0.7541666	53.44059	10.00654	19.99416	19.99643	.002870458
0.7625000	53.96544	10.00631	19.99637	20.00335	.003029054
0.7708332	54.49221	10.00633	20.00209	19.98691	.003263632
0.7791666	55.02316	10.00610	20.02550	19.99143	.003577562
0.7875000	55.54910	10.00584	19.99421	19.99691	.003745088
0.7958334	56.07954	10.00561	19.99856	19.99519	.003694089
0.8041668	56.61200	10.00525	19.99963	20.00361	.003751221
0.8125000	57.14788	10.00487	19.98806	20.01048	.003845390
0.8208332	57.68396	10.00478	19.99398	19.98871	.003976946
0.8291666	58.22047	10.00470	19.99636	19.99274	.004059197
0.8375000	58.75748	10.00448	20.00992	19.99192	.004079292
0.8458334	59.29703	10.00422	20.00564	20.00069	.004117167
0.8541668	59.83570	10.00366	20.00677	19.99155	.004152952
0.8625000	60.37504	10.00358	20.00240	20.00381	.004068159
0.8708332	60.91873	10.00392	19.99442	20.00262	.003979422
0.8791668	61.46168	10.00363	19.99542	20.00541	.003835053
0.8875000	62.00516	10.00324	20.00142	19.99765	.003903030
0.8958332	62.55068	10.00287	19.99220	20.02158	.003970897
0.9041666	63.09670	10.00256	20.01262	19.99816	.003869613
0.9125000	63.64414	10.00238	19.99914	20.00402	.003708954
0.9208334	64.19030	10.00226	19.99715	19.98819	.003595498
0.9291668	64.73950	10.00188	20.01686	19.99994	.003401530
0.9375000	65.28974	10.00181	19.99675	20.00314	.003447835
0.9458332	65.83980	10.00168	19.98044	20.00607	.003527294
0.9541666	66.39111	10.00165	20.00253	20.00051	.003364561
0.9625000	66.94055	10.00106	19.98062	20.00912	.003110539
0.9708334	67.49450	10.00085	20.01037	19.99996	.002965254
0.9791668	68.04749	10.00102	19.99687	19.99969	.002882135
0.9875000	68.60180	10.00101	20.02847	19.98649	.002805130
0.9958332	69.15668	10.00079	19.98237	20.00398	.002786148
1.004167	69.71125	10.00067	20.01170	19.99919	.002710023
1.012500	70.26722	10.00035	20.00634	20.01034	.002745808
1.020833	70.82495	10.00020	19.97196	19.98745	.002793923
1.029167	71.38135	10.00006	20.00508	20.01750	.002840387
1.037500	71.94006	10.00005	19.99482	20.00086	.002704296
1.045834	72.49890	9.999901	20.01711	19.99092	.002912229
1.054167	73.05722	9.999551	20.00337	19.98590	.003070020
1.062500	73.61816	9.999609	20.02147	19.99674	.003097688
1.070833	74.17469	9.999301	19.98999	20.00022	.003053309
1.079166	74.73630	9.999116	19.98586	20.01192	.002975398
1.087500	75.29504	9.998994	19.98731	19.99471	.002889923
1.095833	75.85813	9.998658	19.99709	20.00266	.002860916
1.104166	76.41926	9.998572	19.98955	20.00322	.002830834
1.112500	76.98048	9.998456	20.01411	20.00041	.002746971
1.120833	77.54474	9.998059	20.00546	19.99405	.002598295
1.129167	78.10525	9.997986	20.01272	19.99635	.002406832
1.137500	78.66919	9.997909	19.99191	19.98638	.002235538
1.145834	79.23356	9.997832	19.99159	20.00805	.002075198
1.154167	79.79534	9.997847	20.00884	20.00056	.001987277
1.162500	80.35735	9.997662	19.98364	20.01227	.001888500
1.170834	80.92306	9.997499	19.99227	19.98688	.001835602
1.179167	81.48928	9.997360	20.01074	19.99080	.001901782
1.187500	82.05285	9.997394	19.99782	20.00348	.001956918
1.195833	82.61782	9.997296	20.02473	19.99132	.002019814
1.204166	83.18286	9.997406	19.99920	20.00946	.002181146
1.212500	83.75112	9.997318	20.00846	19.99622	.002372276
1.220833	84.31434	9.997006	19.99053	20.00145	.002609244
1.229166	84.88379	9.996853	19.98432	20.02832	.002822158
1.237500	85.44947	9.996788	19.99825	19.97418	.002898070
1.245833	86.01710	9.996503	20.00058	20.01300	.002921716
1.254167	86.58149	9.996172	19.99029	19.99350	.002958013
1.262500	87.14863	9.996042	20.00881	19.99887	.003026116
1.270834	87.71492	9.995910	20.01912	20.00186	.003136780
1.279167	88.28553	9.995648	19.99683	19.99755	.003195306
1.287500	88.85355	9.995376	20.00524	20.01719	.003141768
1.295834	89.42142	9.995000	19.98447	20.00336	.003088760
1.304167	89.98888	9.994876	19.98289	20.00136	.003080702
1.312500	90.55757	9.995072	19.99445	20.00413	.002954230
1.320833	91.12649	9.995053	20.00360	20.00830	.002717212
1.329166	91.69525	9.994945	20.01329	19.98455	.002576025
1.337500	92.26520	9.994618	20.00198	20.00643	.002533920
1.345833	92.83420	9.994205	20.02612	19.98575	.002508878
1.354166	93.40285	9.994179	19.99924	20.00646	.002499318
1.362500	93.97266	9.993993	19.97862	20.02031	.002496310
1.370833	94.54059	9.993816	20.00812	19.99089	.002527430
1.379167	95.11028	9.993582	19.97358	20.00600	.002665444
1.387500	95.67866	9.993866	20.00357	20.00114	.002777896
1.395834	96.24648	9.993863	20.01392	19.98558	.002836532
1.404167	96.81493	9.993554	20.00264	19.98793	.002913545
1.412500	97.38449	9.993266	20.00636	19.99021	.002999042
1.420834	97.95426	9.993000	19.99236	19.99750	.003178446
1.429167	98.52203	9.992792	20.01358	20.01971	.003403875
1.437500	99.09092	9.992711	19.99949	19.98838	.003571038
1.445833	99.65603	9.992611	19.97549	20.00152	.003745728
1.454166	100.2260	9.992311	20.00456	20.01103	.003999222
1.462500	100.7943	9.992203	19.99262	19.99941	.004298797
1.470833	101.3629	9.991809	20.01295	19.99339	.004472512
1.479166	101.9307	9.991444	20.00950	20.00104	.004557098
1.487500	102.5002	9.991184	20.00186	19.99123	.004680367
1.495833	103.0684	9.990858	19.98688	20.01637	.004825730
1.504167	103.6347	9.990652	20.00775	20.00239	.004937207
1.512500	104.2032	9.990526	20.00088	20.01045	.005006146
1.520834	104.7701	9.990235	19.97838	20.00599	.005088472
1.529167	105.3399	9.989864	20.00936	20.01371	.005191102
1.537500	105.9110	9.989325	19.99213	19.98911	.005256071
1.545834	106.4768	9.989090	20.01764	19.99117	.005291838
1.554167	107.0451	9.988902	20.00180	19.99029	.005402408
1.562500	107.6122	9.988501	20.00320	20.00410	.005568386
1.570833	108.1820	9.988262	19.99665	19.99762	.005764734
1.579166	108.7487	9.988124	19.99801	20.00338	.005976544
1.587500	109.3171	9.987894	19.98769	19.99633	.006172562
1.595833	109.8880	9.987291	19.99052	20.01655	.006420196
1.604166	110.4553	9.986942	20.00316	19.97162	.006764502
1.612500	111.0220	9.986641	20.01046	19.99786	.007238620
1.620833	111.5928	9.986280	20.00975	19.99021	.007778584
1.629167	112.1619	9.985790	20.00565	19.98087	.008269062
1.637500	112.7307	9.985326	20.00081	20.01070	.008857982
1.645834	113.2978	9.984860	19.99751	19.99750	.009633399
1.654167	113.8664	9.984472	19.99301	20.00902	0.01047903
1.662500	114.4364	9.983951	19.98660	20.00969	0.01134126
1.670834	115.0034	9.983149	20.01904	20.00469	0.01233660
1.679166	115.5727	9.982349	19.98741	20.00109	0.01349611
1.687500	116.1410	9.981506	19.99428	20.01669	0.01474116
1.695834	116.7093	9.980969	19.99542	19.99266	0.01599529
1.704166	117.2764	9.980343	20.00895	20.00636	0.01721596
1.712500	117.8449	9.979218	20.02477	19.98198	0.01848769
1.720833	118.4141	9.977975	19.98790	20.00760	0.01991571
1.729166	118.9826	9.976830	20.00151	19.99208	0.02150087
1.737500	119.5521	9.975553	19.99754	19.99694	0.02315684
1.745833	120.1222	9.974036	19.98517	19.99896	0.02498407
1.754167	120.6892	9.972612	20.00174	20.00216	0.02695512
1.762500	121.2586	9.970975	19.99378	20.00761	0.02901919
1.770834	121.8238	9.969595	20.01644	19.98454	0.03112946
1.779167	122.3918	9.968195	19.99926	19.99168	0.03323344
1.787500	122.9616	9.966472	20.02731	20.00382	0.03542215
1.795834	123.5314	9.964257	19.98453	19.99448	0.03773042
1.804166	124.1008	9.961895	20.00235	20.01114	0.04010484
1.812500	124.6681	9.959532	19.98564	20.01543	0.04256820
1.820834	125.2354	9.956696	19.99078	19.99892	0.04516711
1.829166	125.8008	9.954202	19.98935	20.01252	0.04787583
1.837500	126.3685	9.951519	20.01378	20.00321	0.05067526
1.845833	126.9355	9.948788	20.00953	19.98816	0.05355171
1.854166	127.5051	9.945621	19.99747	20.01030	0.05639384
1.862500	128.0696	9.942242	20.02506	19.99090	0.05913150
1.870833	128.6388	9.938928	19.98634	20.00349	0.06186806
1.879167	129.2067	9.935512	19.98702	20.00672	0.06457868
1.887500	129.7746	9.931649	20.00588	20.00996	0.06718910
1.895834	130.3405	9.927705	19.98324	20.00031	0.06983814
1.904167	130.9103	9.923575	19.98944	20.00127	0.07256860
1.912500	131.4743	9.919374	20.02509	19.98432	0.07516254
1.920834	132.0444	9.914892	20.00172	19.99637	0.07764005
1.929166	132.6088	9.910334	19.99879	20.00491	0.08002346
1.937500	133.1761	9.905601	20.01566	19.99041	0.08245962
1.945834	133.7425	9.900647	19.98134	20.00504	0.08491425
1.954166	134.3098	9.895995	20.01512	19.99325	0.08724676
1.962500	134.8759	9.891225	19.97504	20.00104	0.08947548
1.970833	135.4419	9.885937	20.00048	20.00254	0.09172657
1.979166	136.0119	9.880609	19.99374	19.99286	0.09395318
1.987500	136.5775	9.875465	20.01676	19.98001	0.09609329
1.995833	137.1445	9.869988	19.99111	20.00503	0.09821791
2.004166	137.7100	9.864341	20.02422	19.99326	0.1003272
2.012500	138.2756	9.858338	20.00075	20.00324	0.1025682
2.020833	138.8431	9.852356	19.99374	20.00700	0.1049821
2.029167	139.4098	9.846424	19.99384	20.00336	0.1073681
2.037500	139.9783	9.840311	19.98318	19.99540	0.1095654
2.045834	140.5461	9.833891	20.00105	20.01556	0.1115992
2.054166	141.1116	9.827628	20.00506	20.00520	0.1136801
2.062500	141.6796	9.821303	20.00079	19.98634	0.1157953
2.070834	142.2474	9.814640	20.00568	19.99486	0.1179352
2.079166	142.8127	9.808101	20.01620	20.00644	0.1200088
2.087500	143.3799	9.800641	19.99109	20.00334	0.1221916
2.095833	143.9454	9.793426	20.00505	20.00984	0.1250952
2.104167	144.5131	9.786484	19.97912	20.01193	0.1289152
2.112500	145.0790	9.779532	20.00437	20.00572	0.1334545
2.120834	145.6493	9.772546	19.99229	19.99169	0.1385636
2.129166	146.2139	9.764993	20.01702	20.00225	0.1439053
2.137500	146.7819	9.757332	19.98923	19.99284	0.1490919
2.145833	147.3491	9.749222	20.02258	19.98910	0.1539621
2.154167	147.9170	9.741657	19.99286	20.00123	0.1584038
2.162500	148.4817	9.733126	19.97969	20.03306	0.1623974
2.170834	149.0501	9.722381	20.00846	19.97712	0.1662046
2.179166	149.6173	9.710876	19.98896	19.99740	0.1697313
2.187500	150.1854	9.699253	20.02068	20.00682	0.1727544
2.195834	150.7534	9.687834	19.98997	19.99016	0.1751466
2.204166	151.3184	9.677265	20.00816	19.99466	0.1769491
2.212500	151.8827	9.667398	20.01030	19.99449	0.1782015
2.220833	152.4515	9.657681	19.99121	20.00108	0.1789160
2.229167	153.0181	9.648270	20.00475	19.99501	0.1790258
2.237500	153.5842	9.638818	19.99575	19.99670	0.1783209
2.245834	154.1539	9.628876	19.98009	20.00272	0.1771633
2.254166	154.7202	9.618805	20.00691	20.00794	0.1761525
2.262500	155.2901	9.608957	20.00336	19.99334	0.1756126
2.270833	155.8570	9.598994	19.99006	19.98912	0.1757841
2.279167	156.4234	9.588875	20.00690	19.99369	0.1766355
2.287500	156.9912	9.578809	20.01245	20.01172	0.1778136
2.295834	157.5590	9.568706	20.01452	19.99126	0.1790575
2.304166	158.1246	9.558645	19.98851	20.01039	0.1802792
2.312500	158.6934	9.548556	19.99524	20.00220	0.1814620
2.320834	159.2605	9.538514	19.98415	20.01136	0.1826201
2.329166	159.8285	9.528407	19.99229	20.02898	0.1838821
2.337500	160.3960	9.517947	20.01074	19.96256	0.1853103
2.345833	160.9637	9.506936	20.00504	20.00950	0.1868268
2.354167	161.5307	9.495881	20.01177	20.00501	0.1884083
2.362500	162.0970	9.485187	20.01577	19.99702	0.1900691
2.370834	162.6659	9.474562	19.99956	20.00305	0.1918078
2.379166	163.2331	9.463889	19.97800	20.00449	0.1935953
2.387500	163.8012	9.452834	19.98111	20.00957	0.1953450
2.395833	164.3694	9.441856	19.99722	20.00156	0.1970364
2.404167	164.9358	9.430664	20.01498	20.00602	0.1986156
2.412500	165.5034	9.419149	19.99451	19.98636	0.2000576
2.420834	166.0716	9.407586	20.01929	20.00303	0.2015166
2.429166	166.6372	9.396172	19.99182	19.98848	0.2030211
2.437500	167.2045	9.384532	20.00823	20.00687	0.2044640
2.445834	167.7723	9.372745	19.98864	20.00775	0.2058254
2.454166	168.3420	9.360864	19.99274	19.99866	0.2071025
2.462500	168.9098	9.349156	19.99538	19.99776	0.2082906
2.470833	169.4753	9.337226	19.99547	19.98172	0.2094377
2.479167	170.0426	9.325301	19.99954	19.99785	0.2105328
2.487500	170.6102	9.313264	20.01222	19.99993	0.2116434
2.495834	171.1789	9.300970	20.00760	19.99340	0.2127736
2.504166	171.7486	9.289090	20.01028	19.99225	0.2138812
2.512500	172.3158	9.277294	19.99937	20.00164	0.2149990
2.520833	172.8837	9.265064	19.98993	20.01543	0.2161246
2.529167	173.4520	9.252680	19.99278	19.99766	0.2172059
2.537500	174.0198	9.240326	20.00480	19.98956	0.2182605
2.545834	174.5891	9.227756	19.99575	20.00469	0.2192663
2.554166	175.1557	9.215171	20.00331	19.99512	0.2202416
2.562500	175.7242	9.202414	20.00262	19.99012	0.2212086
2.570834	176.2924	9.189874	20.00197	19.99154	0.2222095
2.579166	176.8612	9.177176	19.99912	19.99660	0.2232806
2.587500	177.4283	9.164269	20.00751	19.99926	0.2242999
2.595833	177.9970	9.151512	19.98141	20.00406	0.2252028
2.604167	178.5662	9.138889	20.00508	20.02148	0.2260262
2.612500	179.1337	9.126001	19.97568	20.00224	0.2267801
2.620834	179.7021	9.113246	20.01994	19.98092	0.2274719
2.629166	180.2716	9.100330	19.99654	20.01039	0.2280997
2.637500	180.8384	9.087312	20.01025	19.99373	0.2287124
2.645833	181.4092	9.074256	20.00346	19.99636	0.2293446
2.654167	181.9766	9.060957	20.01236	20.01119	0.2299452
2.662500	182.5469	9.047558	19.97935	20.00192	0.2305384
2.670834	183.1149	9.034391	19.99496	20.00257	0.2311127
2.679166	183.6833	9.021305	20.00268	20.00731	0.2315975
2.687500	184.2528	9.008129	19.99884	19.98517	0.2319940
2.695834	184.8203	8.994974	20.00624	19.99734	0.2322215
2.704166	185.3887	8.981910	20.00647	19.99929	0.2322893
2.712500	185.9568	8.968689	19.99707	19.99716	0.2324149
2.720833	186.5254	8.955341	20.00054	19.99584	0.2325788
2.729167	187.0968	8.941861	19.99970	20.01054	0.2327058
2.737500	187.6629	8.928634	20.00218	20.00786	0.2330154
2.745834	188.2344	8.915368	19.99003	19.99711	0.2335327
2.754166	188.8031	8.902078	19.98997	20.00557	0.2340810
2.762500	189.3706	8.888845	20.00502	19.99075	0.2345616
2.770833	189.9381	8.876074	20.01177	20.00066	0.2350003
2.779167	190.5083	8.862828	20.00226	19.98747	0.2354437
2.787500	191.0796	8.849094	20.00416	20.01877	0.2359056
2.795834	191.6475	8.835649	19.99605	19.98582	0.2363041
2.804166	192.2189	8.822274	19.99925	20.00489	0.2366289
2.812500	192.7872	8.808314	19.99809	19.99702	0.2368810
